Thông số của bộ lọc Thông cao
==================================================

Số hệ số (bậc của bộ lọc): 100
Tần số lấy mẫu: 100 Hz
Tần số Nyquist: 50.0 Hz

Đáp ứng xung h(k):
------------------------------
h(  0) =    0.0000000000
h(  1) =    0.0002532360
h(  2) =    0.0004683001
h(  3) =    0.0005958853
h(  4) =    0.0005914585
h(  5) =    0.0004262810
h(  6) =    0.0001018382
h(  7) =   -0.0003373509
h(  8) =   -0.0007995349
h(  9) =   -0.0011563429
h( 10) =   -0.0012705153
h( 11) =   -0.0010369046
h( 12) =   -0.0004264270
h( 13) =    0.0004816755
h( 14) =    0.0014939157
h( 15) =    0.0023323568
h( 16) =    0.0026996246
h( 17) =    0.0023666643
h( 18) =    0.0012603421
h( 19) =   -0.0004770787
h( 20) =   -0.0024815655
h( 21) =   -0.0042274499
h( 22) =   -0.0051494352
h( 23) =   -0.0048019018
h( 24) =   -0.0030149356
h( 25) =   -0.0000000000
h( 26) =    0.0036353297
h( 27) =    0.0069845623
h( 28) =    0.0090434873
h( 29) =    0.0089762384
h( 30) =    0.0063822491
h( 31) =    0.0014896080
h( 32) =   -0.0047909666
h( 33) =   -0.0109892614
h( 34) =   -0.0153713833
h( 35) =   -0.0163572766
h( 36) =   -0.0129699699
h( 37) =   -0.0052063388
h( 38) =    0.0057750142
h( 39) =    0.0177201149
h( 40) =    0.0276171027
h( 41) =    0.0322577011
h( 42) =    0.0289171125
h( 43) =    0.0160088942
h( 44) =   -0.0064351850
h( 45) =   -0.0365818607
h( 46) =   -0.0709724903
h( 47) =   -0.1050447656
h( 48) =   -0.1339089395
h( 49) =   -0.1532276747
h( 50) =    0.8401091690
h( 51) =   -0.1532276747
h( 52) =   -0.1339089395
h( 53) =   -0.1050447656
h( 54) =   -0.0709724903
h( 55) =   -0.0365818607
h( 56) =   -0.0064351850
h( 57) =    0.0160088942
h( 58) =    0.0289171125
h( 59) =    0.0322577011
h( 60) =    0.0276171027
h( 61) =    0.0177201149
h( 62) =    0.0057750142
h( 63) =   -0.0052063388
h( 64) =   -0.0129699699
h( 65) =   -0.0163572766
h( 66) =   -0.0153713833
h( 67) =   -0.0109892614
h( 68) =   -0.0047909666
h( 69) =    0.0014896080
h( 70) =    0.0063822491
h( 71) =    0.0089762384
h( 72) =    0.0090434873
h( 73) =    0.0069845623
h( 74) =    0.0036353297
h( 75) =   -0.0000000000
h( 76) =   -0.0030149356
h( 77) =   -0.0048019018
h( 78) =   -0.0051494352
h( 79) =   -0.0042274499
h( 80) =   -0.0024815655
h( 81) =   -0.0004770787
h( 82) =    0.0012603421
h( 83) =    0.0023666643
h( 84) =    0.0026996246
h( 85) =    0.0023323568
h( 86) =    0.0014939157
h( 87) =    0.0004816755
h( 88) =   -0.0004264270
h( 89) =   -0.0010369046
h( 90) =   -0.0012705153
h( 91) =   -0.0011563429
h( 92) =   -0.0007995349
h( 93) =   -0.0003373509
h( 94) =    0.0001018382
h( 95) =    0.0004262810
h( 96) =    0.0005914585
h( 97) =    0.0005958853
h( 98) =    0.0004683001
h( 99) =    0.0002532360
h(100) =    0.0000000000

Đáp ứng tần số H(z):
------------------------------
Tần số(Hz)  |H(z)|(dB)    Pha(độ)
--------------------------------------------------
     0.000      -54.914        0.000
     0.063      -55.082      -11.250
     0.125      -55.603      -22.500
     0.188      -56.520      -33.750
     0.250      -57.931      -45.000
     0.312      -60.033      -56.250
     0.375      -63.287      -67.500
     0.438      -69.191      -78.750
     0.500     -107.000       90.000
     0.562      -68.967       78.750
     0.625      -63.166       67.500
     0.688      -59.943       56.250
     0.750      -57.854       45.000
     0.812      -56.449       33.750
     0.875      -55.534       22.500
     0.938      -55.015       11.250
     1.000      -54.847       -0.000
     1.062      -55.015      -11.250
     1.125      -55.536      -22.500
     1.188      -56.456      -33.750
     1.250      -57.872      -45.000
     1.312      -59.985      -56.250
     1.375      -63.267      -67.500
     1.438      -69.267      -78.750
     1.500      -98.063       90.000
     1.562      -68.647       78.750
     1.625      -62.935       67.500
     1.688      -59.739       56.250
     1.750      -57.661       45.000
     1.812      -56.262       33.750
     1.875      -55.349       22.500
     1.938      -54.831       11.250
     2.000      -54.663       -0.000
     2.063      -54.831      -11.250
     2.125      -55.352      -22.500
     2.188      -56.272      -33.750
     2.250      -57.690      -45.000
     2.312      -59.808      -56.250
     2.375      -63.100      -67.500
     2.438      -69.137      -78.750
     2.500      -96.020       90.000
     2.563      -68.371       78.750
     2.625      -62.692       67.500
     2.688      -59.506       56.250
     2.750      -57.434       45.000
     2.812      -56.038       33.750
     2.875      -55.128       22.500
     2.937      -54.610       11.250
     3.000      -54.442       -0.000
     3.063      -54.611      -11.250
     3.125      -55.129      -22.500
     3.188      -56.044      -33.750
     3.250      -57.451      -45.000
     3.312      -59.546      -56.250
     3.375      -62.783      -67.500
     3.438      -68.633      -78.750
     3.500     -127.884      -90.000
     3.562      -68.659       78.750
     3.625      -62.807       67.500
     3.688      -59.573       56.250
     3.750      -57.484       45.000
     3.812      -56.083       33.750
     3.875      -55.173       22.500
     3.938      -54.659       11.250
     4.000      -54.493       -0.000
     4.062      -54.658      -11.250
     4.125      -55.164      -22.500
     4.188      -56.047      -33.750
     4.250      -57.387      -45.000
     4.312      -59.338      -56.250
     4.375      -62.245      -67.500
     4.438      -67.063      -78.750
     4.500      -79.460      -90.000
     4.563      -72.955       78.750
     4.625      -65.390       67.500
     4.688      -61.730       56.250
     4.750      -59.493       45.000
     4.812      -58.050       33.750
     4.875      -57.145       22.500
     4.938      -56.651       11.250
     5.000      -56.497       -0.000
     5.062      -56.639      -11.250
     5.125      -57.046      -22.500
     5.187      -57.690      -33.750
     5.250      -58.536      -45.000
     5.312      -59.529      -56.250
     5.375      -60.581      -67.500
     5.438      -61.553      -78.750
     5.500      -62.260      -90.000
     5.562      -62.514     -101.250
     5.625      -62.213     -112.500
     5.688      -61.409     -123.750
     5.750      -60.286     -135.000
     5.812      -59.071     -146.250
     5.875      -57.970     -157.500
     5.937      -57.164     -168.750
     6.000      -56.843     -180.000
     6.062      -57.289     -191.250
     6.125      -59.126     -202.500
     6.188      -64.710     -213.750
     6.250      -70.687      -45.000
     6.312      -55.864      -56.250
     6.375      -49.180      -67.500
     6.438      -44.440      -78.750
     6.500      -40.636      -90.000
     6.562      -37.405     -101.250
     6.625      -34.572     -112.500
     6.688      -32.037     -123.750
     6.750      -29.739     -135.000
     6.813      -27.635     -146.250
     6.875      -25.696     -157.500
     6.938      -23.899     -168.750
     7.000      -22.228     -180.000
     7.062      -20.668     -191.250
     7.125      -19.208     -202.500
     7.187      -17.840     -213.750
     7.250      -16.557     -225.000
     7.312      -15.350     -236.250
     7.375      -14.216     -247.500
     7.438      -13.149     -258.750
     7.500      -12.146     -270.000
     7.562      -11.201     -281.250
     7.625      -10.313     -292.500
     7.688       -9.478     -303.750
     7.750       -8.693     -315.000
     7.813       -7.956     -326.250
     7.875       -7.265     -337.500
     7.938       -6.618     -348.750
     8.000       -6.012     -360.000
     8.062       -5.445     -371.250
     8.125       -4.917     -382.500
     8.188       -4.426     -393.750
     8.250       -3.969     -405.000
     8.313       -3.546     -416.250
     8.375       -3.155     -427.500
     8.438       -2.794     -438.750
     8.500       -2.463     -450.000
     8.563       -2.159     -461.250
     8.625       -1.882     -472.500
     8.688       -1.631     -483.750
     8.750       -1.403     -495.000
     8.813       -1.198     -506.250
     8.875       -1.015     -517.500
     8.938       -0.851     -528.750
     9.000       -0.707     -540.000
     9.062       -0.580     -551.250
     9.125       -0.469     -562.500
     9.188       -0.374     -573.750
     9.250       -0.292     -585.000
     9.312       -0.223     -596.250
     9.375       -0.166     -607.500
     9.438       -0.118     -618.750
     9.500       -0.080     -630.000
     9.562       -0.050     -641.250
     9.625       -0.026     -652.500
     9.688       -0.008     -663.750
     9.750        0.004     -675.000
     9.812        0.013     -686.250
     9.875        0.018     -697.500
     9.938        0.021     -708.750
    10.000        0.022     -720.000
    10.063        0.021     -731.250
    10.125        0.019     -742.500
    10.188        0.017     -753.750
    10.250        0.015     -765.000
    10.312        0.013     -776.250
    10.375        0.011     -787.500
    10.437        0.009     -798.750
    10.500        0.008     -810.000
    10.562        0.007     -821.250
    10.625        0.006     -832.500
    10.688        0.006     -843.750
    10.750        0.006     -855.000
    10.813        0.006     -866.250
    10.875        0.006     -877.500
    10.937        0.006     -888.750
    11.000        0.006     -900.000
    11.063        0.006     -911.250
    11.125        0.006     -922.500
    11.188        0.005     -933.750
    11.250        0.005     -945.000
    11.313        0.004     -956.250
    11.375        0.003     -967.500
    11.438        0.002     -978.750
    11.500        0.000     -990.000
    11.562       -0.001    -1001.250
    11.625       -0.002    -1012.500
    11.687       -0.004    -1023.750
    11.750       -0.005    -1035.000
    11.812       -0.006    -1046.250
    11.875       -0.006    -1057.500
    11.938       -0.007    -1068.750
    12.000       -0.007    -1080.000
    12.062       -0.007    -1091.250
    12.125       -0.006    -1102.500
    12.188       -0.006    -1113.750
    12.250       -0.005    -1125.000
    12.313       -0.003    -1136.250
    12.375       -0.002    -1147.500
    12.438       -0.001    -1158.750
    12.500        0.001    -1170.000
    12.562        0.003    -1181.250
    12.625        0.004    -1192.500
    12.688        0.005    -1203.750
    12.750        0.007    -1215.000
    12.812        0.008    -1226.250
    12.875        0.008    -1237.500
    12.937        0.009    -1248.750
    13.000        0.009    -1260.000
    13.062        0.009    -1271.250
    13.125        0.008    -1282.500
    13.188        0.008    -1293.750
    13.250        0.007    -1305.000
    13.312        0.006    -1316.250
    13.375        0.004    -1327.500
    13.438        0.003    -1338.750
    13.500        0.001    -1350.000
    13.563       -0.000    -1361.250
    13.625       -0.001    -1372.500
    13.688       -0.003    -1383.750
    13.750       -0.004    -1395.000
    13.812       -0.005    -1406.250
    13.875       -0.005    -1417.500
    13.938       -0.006    -1428.750
    14.000       -0.006    -1440.000
    14.062       -0.006    -1451.250
    14.125       -0.005    -1462.500
    14.188       -0.005    -1473.750
    14.250       -0.004    -1485.000
    14.312       -0.003    -1496.250
    14.375       -0.002    -1507.500
    14.438       -0.000    -1518.750
    14.500        0.001    -1530.000
    14.562        0.002    -1541.250
    14.625        0.003    -1552.500
    14.688        0.004    -1563.750
    14.750        0.005    -1575.000
    14.813        0.006    -1586.250
    14.875        0.007    -1597.500
    14.938        0.007    -1608.750
    15.000        0.007    -1620.000
    15.063        0.007    -1631.250
    15.125        0.007    -1642.500
    15.188        0.006    -1653.750
    15.250        0.006    -1665.000
    15.312        0.005    -1676.250
    15.375        0.004    -1687.500
    15.438        0.003    -1698.750
    15.500        0.001    -1710.000
    15.562        0.000    -1721.250
    15.625       -0.001    -1732.500
    15.688       -0.002    -1743.750
    15.750       -0.003    -1755.000
    15.812       -0.003    -1766.250
    15.875       -0.004    -1777.500
    15.938       -0.004    -1788.750
    16.000       -0.004    -1800.000
    16.063       -0.004    -1811.250
    16.125       -0.004    -1822.500
    16.188       -0.003    -1833.750
    16.250       -0.003    -1845.000
    16.312       -0.002    -1856.250
    16.375       -0.001    -1867.500
    16.438       -0.000    -1878.750
    16.500        0.001    -1890.000
    16.563        0.002    -1901.250
    16.625        0.003    -1912.500
    16.688        0.004    -1923.750
    16.750        0.005    -1935.000
    16.812        0.005    -1946.250
    16.875        0.006    -1957.500
    16.938        0.006    -1968.750
    17.000        0.006    -1980.000
    17.063        0.006    -1991.250
    17.125        0.006    -2002.500
    17.188        0.005    -2013.750
    17.250        0.005    -2025.000
    17.312        0.004    -2036.250
    17.375        0.003    -2047.500
    17.438        0.002    -2058.750
    17.500        0.001    -2070.000
    17.562        0.000    -2081.250
    17.625       -0.000    -2092.500
    17.688       -0.001    -2103.750
    17.750       -0.002    -2115.000
    17.812       -0.002    -2126.250
    17.875       -0.003    -2137.500
    17.938       -0.003    -2148.750
    18.000       -0.003    -2160.000
    18.062       -0.003    -2171.250
    18.125       -0.003    -2182.500
    18.188       -0.002    -2193.750
    18.250       -0.002    -2205.000
    18.313       -0.001    -2216.250
    18.375       -0.001    -2227.500
    18.438        0.000    -2238.750
    18.500        0.001    -2250.000
    18.562        0.002    -2261.250
    18.625        0.003    -2272.500
    18.688        0.003    -2283.750
    18.750        0.004    -2295.000
    18.812        0.004    -2306.250
    18.875        0.005    -2317.500
    18.938        0.005    -2328.750
    19.000        0.005    -2340.000
    19.062        0.005    -2351.250
    19.125        0.005    -2362.500
    19.188        0.004    -2373.750
    19.250        0.004    -2385.000
    19.312        0.003    -2396.250
    19.375        0.003    -2407.500
    19.438        0.002    -2418.750
    19.500        0.001    -2430.000
    19.562        0.001    -2441.250
    19.625       -0.000    -2452.500
    19.688       -0.001    -2463.750
    19.750       -0.001    -2475.000
    19.812       -0.002    -2486.250
    19.875       -0.002    -2497.500
    19.938       -0.002    -2508.750
    20.000       -0.002    -2520.000
    20.062       -0.002    -2531.250
    20.125       -0.002    -2542.500
    20.188       -0.002    -2553.750
    20.250       -0.001    -2565.000
    20.312       -0.001    -2576.250
    20.375       -0.000    -2587.500
    20.438        0.000    -2598.750
    20.500        0.001    -2610.000
    20.562        0.002    -2621.250
    20.625        0.002    -2632.500
    20.688        0.003    -2643.750
    20.750        0.003    -2655.000
    20.812        0.004    -2666.250
    20.875        0.004    -2677.500
    20.938        0.004    -2688.750
    21.000        0.004    -2700.000
    21.062        0.004    -2711.250
    21.125        0.004    -2722.500
    21.188        0.004    -2733.750
    21.250        0.003    -2745.000
    21.312        0.003    -2756.250
    21.375        0.002    -2767.500
    21.438        0.002    -2778.750
    21.500        0.001    -2790.000
    21.562        0.001    -2801.250
    21.625        0.000    -2812.500
    21.688       -0.000    -2823.750
    21.750       -0.001    -2835.000
    21.812       -0.001    -2846.250
    21.875       -0.002    -2857.500
    21.938       -0.002    -2868.750
    22.000       -0.002    -2880.000
    22.063       -0.002    -2891.250
    22.125       -0.002    -2902.500
    22.188       -0.001    -2913.750
    22.250       -0.001    -2925.000
    22.312       -0.001    -2936.250
    22.375       -0.000    -2947.500
    22.438        0.001    -2958.750
    22.500        0.001    -2970.000
    22.562        0.002    -2981.250
    22.625        0.002    -2992.500
    22.688        0.003    -3003.750
    22.750        0.003    -3015.000
    22.812        0.003    -3026.250
    22.875        0.004    -3037.500
    22.938        0.004    -3048.750
    23.000        0.004    -3060.000
    23.062        0.004    -3071.250
    23.125        0.004    -3082.500
    23.188        0.003    -3093.750
    23.250        0.003    -3105.000
    23.312        0.003    -3116.250
    23.375        0.002    -3127.500
    23.438        0.002    -3138.750
    23.500        0.001    -3150.000
    23.562        0.001    -3161.250
    23.625        0.000    -3172.500
    23.688       -0.000    -3183.750
    23.750       -0.001    -3195.000
    23.813       -0.001    -3206.250
    23.875       -0.001    -3217.500
    23.938       -0.001    -3228.750
    24.000       -0.001    -3240.000
    24.063       -0.001    -3251.250
    24.125       -0.001    -3262.500
    24.188       -0.001    -3273.750
    24.250       -0.001    -3285.000
    24.312       -0.000    -3296.250
    24.375        0.000    -3307.500
    24.438        0.001    -3318.750
    24.500        0.001    -3330.000
    24.562        0.002    -3341.250
    24.625        0.002    -3352.500
    24.688        0.002    -3363.750
    24.750        0.003    -3375.000
    24.812        0.003    -3386.250
    24.875        0.003    -3397.500
    24.938        0.003    -3408.750
    25.000        0.003    -3420.000
    25.063        0.003    -3431.250
    25.125        0.003    -3442.500
    25.188        0.003    -3453.750
    25.250        0.003    -3465.000
    25.313        0.002    -3476.250
    25.375        0.002    -3487.500
    25.438        0.002    -3498.750
    25.500        0.001    -3510.000
    25.562        0.001    -3521.250
    25.625        0.000    -3532.500
    25.688       -0.000    -3543.750
    25.750       -0.000    -3555.000
    25.812       -0.001    -3566.250
    25.875       -0.001    -3577.500
    25.938       -0.001    -3588.750
    26.000       -0.001    -3600.000
    26.062       -0.001    -3611.250
    26.125       -0.001    -3622.500
    26.187       -0.001    -3633.750
    26.250       -0.000    -3645.000
    26.313       -0.000    -3656.250
    26.375        0.000    -3667.500
    26.438        0.001    -3678.750
    26.500        0.001    -3690.000
    26.563        0.002    -3701.250
    26.625        0.002    -3712.500
    26.688        0.002    -3723.750
    26.750        0.003    -3735.000
    26.812        0.003    -3746.250
    26.875        0.003    -3757.500
    26.938        0.003    -3768.750
    27.000        0.003    -3780.000
    27.062        0.003    -3791.250
    27.125        0.003    -3802.500
    27.188        0.003    -3813.750
    27.250        0.003    -3825.000
    27.312        0.002    -3836.250
    27.375        0.002    -3847.500
    27.438        0.002    -3858.750
    27.500        0.001    -3870.000
    27.563        0.001    -3881.250
    27.625        0.000    -3892.500
    27.688        0.000    -3903.750
    27.750       -0.000    -3915.000
    27.813       -0.000    -3926.250
    27.875       -0.001    -3937.500
    27.938       -0.001    -3948.750
    28.000       -0.001    -3960.000
    28.063       -0.001    -3971.250
    28.125       -0.001    -3982.500
    28.188       -0.001    -3993.750
    28.250       -0.000    -4005.000
    28.312        0.000    -4016.250
    28.375        0.000    -4027.500
    28.437        0.001    -4038.750
    28.500        0.001    -4050.000
    28.562        0.001    -4061.250
    28.625        0.002    -4072.500
    28.687        0.002    -4083.750
    28.750        0.002    -4095.000
    28.813        0.003    -4106.250
