Thông số của bộ lọc Thông dải
==================================================

Số hệ số (bậc của bộ lọc): 100
Tần số lấy mẫu: 100 Hz
Tần số Nyquist: 50.0 Hz

Đáp ứng xung h(k):
------------------------------
h(  0) =   -0.0005100223
h(  1) =   -0.0007136130
h(  2) =   -0.0009083511
h(  3) =   -0.0010736165
h(  4) =   -0.0011827419
h(  5) =   -0.0012041127
h(  6) =   -0.0011051020
h(  7) =   -0.0008586314
h(  8) =   -0.0004512944
h(  9) =    0.0001087433
h( 10) =    0.0007862395
h( 11) =    0.0015178507
h( 12) =    0.0022170615
h( 13) =    0.0027854633
h( 14) =    0.0031294117
h( 15) =    0.0031796903
h( 16) =    0.0029106688
h( 17) =    0.0023548468
h( 18) =    0.0016088274
h( 19) =    0.0008277447
h( 20) =    0.0002069019
h( 21) =   -0.0000483647
h( 22) =    0.0002388355
h( 23) =    0.0011757079
h( 24) =    0.0027627924
h( 25) =    0.0048686429
h( 26) =    0.0072226785
h( 27) =    0.0094305718
h( 28) =    0.0110133453
h( 29) =    0.0114675526
h( 30) =    0.0103400822
h( 31) =    0.0073078975
h( 32) =    0.0022510002
h( 33) =   -0.0046934720
h( 34) =   -0.0131066012
h( 35) =   -0.0222997931
h( 36) =   -0.0313661847
h( 37) =   -0.0392683624
h( 38) =   -0.0449538217
h( 39) =   -0.0474848558
h( 40) =   -0.0461664154
h( 41) =   -0.0406545217
h( 42) =   -0.0310292980
h( 43) =   -0.0178205402
h( 44) =   -0.0019795225
h( 45) =    0.0152023266
h( 46) =    0.0322200816
h( 47) =    0.0475131655
h( 48) =    0.0596356264
h( 49) =    0.0674179123
h( 50) =    0.0700998487
h( 51) =    0.0674179123
h( 52) =    0.0596356264
h( 53) =    0.0475131655
h( 54) =    0.0322200816
h( 55) =    0.0152023266
h( 56) =   -0.0019795225
h( 57) =   -0.0178205402
h( 58) =   -0.0310292980
h( 59) =   -0.0406545217
h( 60) =   -0.0461664154
h( 61) =   -0.0474848558
h( 62) =   -0.0449538217
h( 63) =   -0.0392683624
h( 64) =   -0.0313661847
h( 65) =   -0.0222997931
h( 66) =   -0.0131066012
h( 67) =   -0.0046934720
h( 68) =    0.0022510002
h( 69) =    0.0073078975
h( 70) =    0.0103400822
h( 71) =    0.0114675526
h( 72) =    0.0110133453
h( 73) =    0.0094305718
h( 74) =    0.0072226785
h( 75) =    0.0048686429
h( 76) =    0.0027627924
h( 77) =    0.0011757079
h( 78) =    0.0002388355
h( 79) =   -0.0000483647
h( 80) =    0.0002069019
h( 81) =    0.0008277447
h( 82) =    0.0016088274
h( 83) =    0.0023548468
h( 84) =    0.0029106688
h( 85) =    0.0031796903
h( 86) =    0.0031294117
h( 87) =    0.0027854633
h( 88) =    0.0022170615
h( 89) =    0.0015178507
h( 90) =    0.0007862395
h( 91) =    0.0001087433
h( 92) =   -0.0004512944
h( 93) =   -0.0008586314
h( 94) =   -0.0011051020
h( 95) =   -0.0012041127
h( 96) =   -0.0011827419
h( 97) =   -0.0010736165
h( 98) =   -0.0009083511
h( 99) =   -0.0007136130
h(100) =   -0.0005100223

Đáp ứng tần số H(z):
------------------------------
Tần số(Hz)  |H(z)|(dB)    Pha(độ)
--------------------------------------------------
     0.000      -47.421      180.000
     0.063      -47.442      168.750
     0.125      -47.507      157.500
     0.188      -47.631      146.250
     0.250      -47.838      135.000
     0.312      -48.168      123.750
     0.375      -48.684      112.500
     0.438      -49.488      101.250
     0.500      -50.764       90.000
     0.562      -52.901       78.750
     0.625      -57.008       67.500
     0.688      -71.042       56.250
     0.750      -58.466      225.000
     0.812      -50.218      213.750
     0.875      -45.234      202.500
     0.938      -41.459      191.250
     1.000      -38.328      180.000
     1.062      -35.607      168.750
     1.125      -33.173      157.500
     1.188      -30.958      146.250
     1.250      -28.916      135.000
     1.312      -27.020      123.750
     1.375      -25.248      112.500
     1.438      -23.585      101.250
     1.500      -22.020       90.000
     1.562      -20.544       78.750
     1.625      -19.149       67.500
     1.688      -17.831       56.250
     1.750      -16.583       45.000
     1.812      -15.402       33.750
     1.875      -14.285       22.500
     1.938      -13.228       11.250
     2.000      -12.228        0.000
     2.063      -11.283      -11.250
     2.125      -10.391      -22.500
     2.188       -9.549      -33.750
     2.250       -8.755      -45.000
     2.312       -8.009      -56.250
     2.375       -7.307      -67.500
     2.438       -6.648      -78.750
     2.500       -6.032      -90.000
     2.563       -5.455     -101.250
     2.625       -4.917     -112.500
     2.688       -4.417     -123.750
     2.750       -3.952     -135.000
     2.812       -3.523     -146.250
     2.875       -3.126     -157.500
     2.937       -2.761     -168.750
     3.000       -2.426     -180.000
     3.063       -2.120     -191.250
     3.125       -1.842     -202.500
     3.188       -1.590     -213.750
     3.250       -1.363     -225.000
     3.312       -1.160     -236.250
     3.375       -0.978     -247.500
     3.438       -0.816     -258.750
     3.500       -0.674     -270.000
     3.562       -0.549     -281.250
     3.625       -0.441     -292.500
     3.688       -0.347     -303.750
     3.750       -0.267     -315.000
     3.812       -0.200     -326.250
     3.875       -0.144     -337.500
     3.938       -0.098     -348.750
     4.000       -0.062     -360.000
     4.062       -0.035     -371.250
     4.125       -0.015     -382.500
     4.188       -0.004     -393.750
     4.250        0.000     -405.000
     4.312       -0.003     -416.250
     4.375       -0.014     -427.500
     4.438       -0.033     -438.750
     4.500       -0.060     -450.000
     4.563       -0.096     -461.250
     4.625       -0.142     -472.500
     4.688       -0.198     -483.750
     4.750       -0.265     -495.000
     4.812       -0.345     -506.250
     4.875       -0.439     -517.500
     4.938       -0.548     -528.750
     5.000       -0.674     -540.000
     5.062       -0.817     -551.250
     5.125       -0.979     -562.500
     5.187       -1.161     -573.750
     5.250       -1.366     -585.000
     5.312       -1.594     -596.250
     5.375       -1.846     -607.500
     5.438       -2.124     -618.750
     5.500       -2.430     -630.000
     5.562       -2.765     -641.250
     5.625       -3.130     -652.500
     5.688       -3.526     -663.750
     5.750       -3.955     -675.000
     5.812       -4.419     -686.250
     5.875       -4.918     -697.500
     5.937       -5.454     -708.750
     6.000       -6.029     -720.000
     6.062       -6.644     -731.250
     6.125       -7.300     -742.500
     6.188       -7.999     -753.750
     6.250       -8.744     -765.000
     6.312       -9.535     -776.250
     6.375      -10.374     -787.500
     6.438      -11.265     -798.750
     6.500      -12.208     -810.000
     6.562      -13.207     -821.250
     6.625      -14.264     -832.500
     6.688      -15.383     -843.750
     6.750      -16.567     -855.000
     6.813      -17.820     -866.250
     6.875      -19.148     -877.500
     6.938      -20.554     -888.750
     7.000      -22.047     -900.000
     7.062      -23.635     -911.250
     7.125      -25.329     -922.500
     7.187      -27.141     -933.750
     7.250      -29.089     -945.000
     7.312      -31.200     -956.250
     7.375      -33.507     -967.500
     7.438      -36.065     -978.750
     7.500      -38.961     -990.000
     7.562      -42.351    -1001.250
     7.625      -46.560    -1012.500
     7.688      -52.458    -1023.750
     7.750      -64.614    -1035.000
     7.813      -62.262     -866.250
     7.875      -55.047     -877.500
     7.938      -52.135     -888.750
     8.000      -50.627     -900.000
     8.062      -49.831     -911.250
     8.125      -49.469     -922.500
     8.188      -49.405     -933.750
     8.250      -49.564     -945.000
     8.313      -49.901     -956.250
     8.375      -50.396     -967.500
     8.438      -51.042     -978.750
     8.500      -51.846     -990.000
     8.563      -52.828    -1001.250
     8.625      -54.027    -1012.500
     8.688      -55.509    -1023.750
     8.750      -57.388    -1035.000
     8.813      -59.878    -1046.250
     8.875      -63.459    -1057.500
     8.938      -69.684    -1068.750
     9.000      -99.390     -900.000
     9.062      -69.425     -911.250
     9.125      -63.790     -922.500
     9.188      -60.640     -933.750
     9.250      -58.575     -945.000
     9.312      -57.156     -956.250
     9.375      -56.192     -967.500
     9.438      -55.588     -978.750
     9.500      -55.296     -990.000
     9.562      -55.296    -1001.250
     9.625      -55.589    -1012.500
     9.688      -56.195    -1023.750
     9.750      -57.162    -1035.000
     9.812      -58.581    -1046.250
     9.875      -60.628    -1057.500
     9.938      -63.696    -1068.750
    10.000      -68.944    -1080.000
    10.063      -85.698    -1091.250
    10.125      -72.004     -922.500
    10.188      -65.340     -933.750
    10.250      -61.867     -945.000
    10.312      -59.669     -956.250
    10.375      -58.207     -967.500
    10.437      -57.260     -978.750
    10.500      -56.719     -990.000
    10.562      -56.533    -1001.250
    10.625      -56.683    -1012.500
    10.688      -57.177    -1023.750
    10.750      -58.055    -1035.000
    10.813      -59.399    -1046.250
    10.875      -61.377    -1057.500
    10.937      -64.364    -1068.750
    11.000      -69.459    -1080.000
    11.063      -84.653    -1091.250
    11.125      -73.226     -922.500
    11.188      -66.327     -933.750
    11.250      -62.795     -945.000
    11.313      -60.578     -956.250
    11.375      -59.117     -967.500
    11.438      -58.182     -978.750
    11.500      -57.664     -990.000
    11.562      -57.510    -1001.250
    11.625      -57.704    -1012.500
    11.687      -58.256    -1023.750
    11.750      -59.213    -1035.000
    11.812      -60.669    -1046.250
    11.875      -62.825    -1057.500
    11.938      -66.145    -1068.750
    12.000      -72.154    -1080.000
    12.062     -104.345     -911.250
    12.125      -71.851     -922.500
    12.188      -66.163     -933.750
    12.250      -63.027     -945.000
    12.313      -61.021     -956.250
    12.375      -59.702     -967.500
    12.438      -58.877     -978.750
    12.500      -58.456     -990.000
    12.562      -58.394    -1001.250
    12.625      -58.683    -1012.500
    12.688      -59.344    -1023.750
    12.750      -60.432    -1035.000
    12.812      -62.069    -1046.250
    12.875      -64.508    -1057.500
    12.937      -68.387    -1068.750
    13.000      -76.266    -1080.000
    13.062      -82.283     -911.250
    13.125      -70.405     -922.500
    13.188      -65.811     -933.750
    13.250      -63.099     -945.000
    13.312      -61.334     -956.250
    13.375      -60.180     -967.500
    13.438      -59.486     -978.750
    13.500      -59.177     -990.000
    13.563      -59.224    -1001.250
    13.625      -59.625    -1012.500
    13.688      -60.411    -1023.750
    13.750      -61.657    -1035.000
    13.812      -63.513    -1046.250
    13.875      -66.314    -1057.500
    13.938      -70.992    -1068.750
    14.000      -82.892    -1080.000
    14.062      -77.112     -911.250
    14.125      -69.298     -922.500
    14.188      -65.506     -933.750
    14.250      -63.158     -945.000
    14.312      -61.614     -956.250
    14.375      -60.618     -967.500
    14.438      -60.052     -978.750
    14.500      -59.857     -990.000
    14.562      -60.014    -1001.250
    14.625      -60.531    -1012.500
    14.688      -61.453    -1023.750
    14.750      -62.871    -1035.000
    14.813      -64.980    -1046.250
    14.875      -68.228    -1057.500
    14.938      -74.060    -1068.750
    15.000     -112.313    -1080.000
    15.063      -74.353     -911.250
    15.125      -68.493     -922.500
    15.188      -65.287     -933.750
    15.250      -63.239     -945.000
    15.312      -61.888     -956.250
    15.375      -61.037     -967.500
    15.438      -60.590     -978.750
    15.500      -60.506     -990.000
    15.562      -60.772    -1001.250
    15.625      -61.408    -1012.500
    15.688      -62.471    -1023.750
    15.750      -64.076    -1035.000
    15.812      -66.472    -1046.250
    15.875      -70.277    -1057.500
    15.938      -77.910    -1068.750
    16.000      -85.127     -900.000
    16.063      -72.605     -911.250
    16.125      -67.909     -922.500
    16.188      -65.147     -933.750
    16.250      -63.347     -945.000
    16.312      -62.164     -956.250
    16.375      -61.443     -967.500
    16.438      -61.110     -978.750
    16.500      -61.130     -990.000
    16.563      -61.504    -1001.250
    16.625      -62.260    -1012.500
    16.688      -63.470    -1023.750
    16.750      -65.278    -1035.000
    16.812      -68.004    -1046.250
    16.875      -72.521    -1057.500
    16.938      -83.468    -1068.750
    17.000      -79.681     -900.000
    17.063      -71.401     -911.250
    17.125      -67.483     -922.500
    17.188      -65.068     -933.750
    17.250      -63.477     -945.000
    17.312      -62.442     -956.250
    17.375      -61.841     -967.500
    17.438      -61.613     -978.750
    17.500      -61.735     -990.000
    17.562      -62.215    -1001.250
    17.625      -63.092    -1012.500
    17.688      -64.455    -1023.750
    17.750      -66.485    -1035.000
    17.812      -69.596    -1046.250
    17.875      -75.065    -1057.500
    17.938      -96.010    -1068.750
    18.000      -76.814     -900.000
    18.062      -70.528     -911.250
    18.125      -67.172     -922.500
    18.188      -65.037     -933.750
    18.250      -63.625     -945.000
    18.313      -62.723     -956.250
    18.375      -62.231     -967.500
    18.438      -62.102     -978.750
    18.500      -62.323     -990.000
    18.562      -62.908    -1001.250
    18.625      -63.910    -1012.500
    18.688      -65.435    -1023.750
    18.750      -67.709    -1035.000
    18.812      -71.278    -1046.250
    18.875      -78.107    -1057.500
    18.938      -91.000     -888.750
    19.000      -74.963     -900.000
    19.062      -69.872     -911.250
    19.125      -66.944     -922.500
    19.188      -65.043     -933.750
    19.250      -63.786     -945.000
    19.312      -63.004     -956.250
    19.375      -62.615     -967.500
    19.438      -62.581     -978.750
    19.500      -62.897     -990.000
    19.562      -63.588    -1001.250
    19.625      -64.717    -1012.500
    19.688      -66.415    -1023.750
    19.750      -68.963    -1035.000
    19.812      -73.093    -1046.250
    19.875      -82.076    -1057.500
    19.938      -83.574     -888.750
    20.000      -73.649     -900.000
    20.062      -69.367     -911.250
    20.125      -66.778     -922.500
    20.188      -65.075     -933.750
    20.250      -63.958     -945.000
    20.312      -63.286     -956.250
    20.375      -62.992     -967.500
    20.438      -63.049     -978.750
    20.500      -63.460     -990.000
    20.562      -64.258    -1001.250
    20.625      -65.519    -1012.500
    20.688      -67.404    -1023.750
    20.750      -70.262    -1035.000
    20.812      -75.101    -1046.250
    20.875      -88.284    -1057.500
    20.938      -80.047     -888.750
    21.000      -72.663     -900.000
    21.062      -68.971     -911.250
    21.125      -66.660     -922.500
    21.188      -65.129     -933.750
    21.250      -64.137     -945.000
    21.312      -63.567     -956.250
    21.375      -63.364     -967.500
    21.438      -63.510     -978.750
    21.500      -64.015     -990.000
    21.562      -64.920    -1001.250
    21.625      -66.321    -1012.500
    21.688      -68.407    -1023.750
    21.750      -71.626    -1035.000
    21.812      -77.402    -1046.250
    21.875     -110.918    -1057.500
    21.938      -77.816     -888.750
    22.000      -71.895     -900.000
    22.063      -68.656     -911.250
    22.125      -66.579     -922.500
    22.188      -65.200     -933.750
    22.250      -64.321     -945.000
    22.312      -63.847     -956.250
    22.375      -63.731     -967.500
    22.438      -63.964     -978.750
    22.500      -64.562     -990.000
    22.562      -65.579    -1001.250
    22.625      -67.126    -1012.500
    22.688      -69.436    -1023.750
    22.750      -73.079    -1035.000
    22.812      -80.173    -1046.250
    22.875      -90.741     -877.500
    22.938      -76.231     -888.750
    23.000      -71.280     -900.000
    23.062      -68.402     -911.250
    23.125      -66.526     -922.500
    23.188      -65.283     -933.750
    23.250      -64.510     -945.000
    23.312      -64.126     -956.250
    23.375      -64.095     -967.500
    23.438      -64.413     -978.750
    23.500      -65.106     -990.000
    23.562      -66.238    -1001.250
    23.625      -67.941    -1012.500
    23.688      -70.499    -1023.750
    23.750      -74.656    -1035.000
    23.813      -83.788    -1046.250
    23.875      -84.778     -877.500
    23.938      -75.031     -888.750
    24.000      -70.778     -900.000
    24.063      -68.197     -911.250
    24.125      -66.496     -922.500
    24.188      -65.377     -933.750
    24.250      -64.702     -945.000
    24.312      -64.403     -956.250
    24.375      -64.455     -967.500
    24.438      -64.858     -978.750
    24.500      -65.647     -990.000
    24.562      -66.899    -1001.250
    24.625      -68.769    -1012.500
    24.688      -71.608    -1023.750
    24.750      -76.406    -1035.000
    24.812      -89.306    -1046.250
    24.875      -81.556     -877.500
    24.938      -74.083     -888.750
    25.000      -70.360     -900.000
    25.063      -68.031     -911.250
    25.125      -66.486     -922.500
    25.188      -65.479     -933.750
    25.250      -64.896     -945.000
    25.313      -64.681     -956.250
    25.375      -64.812     -967.500
    25.438      -65.301     -978.750
    25.500      -66.188     -990.000
    25.562      -67.565    -1001.250
    25.625      -69.618    -1012.500
    25.688      -72.779    -1023.750
    25.750      -78.404    -1035.000
    25.812     -103.860    -1046.250
    25.875      -79.401     -877.500
    25.938      -73.311     -888.750
    26.000      -70.009     -900.000
    26.062      -67.895     -911.250
    26.125      -66.490     -922.500
    26.187      -65.588     -933.750
    26.250      -65.093     -945.000
    26.313      -64.957     -956.250
    26.375      -65.168     -967.500
    26.438      -65.742     -978.750
    26.500      -66.731     -990.000
    26.563      -68.240    -1001.250
    26.625      -70.493    -1012.500
    26.688      -74.031    -1023.750
    26.750      -80.781    -1035.000
    26.812      -94.332     -866.250
    26.875      -77.813     -877.500
    26.938      -72.668     -888.750
    27.000      -69.710     -900.000
    27.062      -67.785     -911.250
    27.125      -66.506     -922.500
    27.188      -65.703     -933.750
    27.250      -65.291     -945.000
    27.312      -65.233     -956.250
    27.375      -65.523     -967.500
    27.438      -66.184     -978.750
    27.500      -67.277     -990.000
    27.563      -68.927    -1001.250
    27.625      -71.403    -1012.500
    27.688      -75.389    -1023.750
    27.750      -83.786    -1035.000
    27.813      -87.355     -866.250
    27.875      -76.574     -877.500
    27.938      -72.124     -888.750
    28.000      -69.454     -900.000
    28.063      -67.696     -911.250
    28.125      -66.534     -922.500
    28.188      -65.822     -933.750
    28.250      -65.491     -945.000
    28.312      -65.509     -956.250
    28.375      -65.878     -967.500
    28.437      -66.627     -978.750
    28.500      -67.829     -990.000
    28.562      -69.631    -1001.250
    28.625      -72.356    -1012.500
    28.687      -76.889    -1023.750
    28.750      -88.020    -1035.000
    28.813      -83.761     -866.250
