Thông số của bộ lọc Thông thấp
==================================================

Số hệ số (bậc của bộ lọc): 100
Tần số lấy mẫu: 100 Hz
Tần số Nyquist: 50.0 Hz

Đáp ứng xung h(k):
------------------------------
h(  0) =    0.0000000000
h(  1) =    0.0000983022
h(  2) =    0.0002037719
h(  3) =    0.0003192871
h(  4) =    0.0004465792
h(  5) =    0.0005855599
h(  6) =    0.0007337474
h(  7) =    0.0008858505
h(  8) =    0.0010335606
h(  9) =    0.0011655918
h( 10) =    0.0012679916
h( 11) =    0.0013247321
h( 12) =    0.0013185698
h( 13) =    0.0012321435
h( 14) =    0.0010492628
h( 15) =    0.0007563233
h( 16) =    0.0003437697
h( 17) =   -0.0001924807
h( 18) =   -0.0008497443
h( 19) =   -0.0016175018
h( 20) =   -0.0024766362
h( 21) =   -0.0033990551
h( 22) =   -0.0043477549
h( 23) =   -0.0052773653
h( 24) =   -0.0061351895
h( 25) =   -0.0068627280
h( 26) =   -0.0073976494
h( 27) =   -0.0076761433
h( 28) =   -0.0076355687
h( 29) =   -0.0072172893
h( 30) =   -0.0063695716
h( 31) =   -0.0050504115
h( 32) =   -0.0032301520
h( 33) =   -0.0008937559
h( 34) =    0.0019573891
h( 35) =    0.0053042442
h( 36) =    0.0091095544
h( 37) =    0.0133180050
h( 38) =    0.0178571240
h( 39) =    0.0226389244
h( 40) =    0.0275622448
h( 41) =    0.0325157116
h( 42) =    0.0373812192
h( 43) =    0.0420377958
h( 44) =    0.0463657021
h( 45) =    0.0502505966
h( 46) =    0.0535875964
h( 47) =    0.0562850612
h( 48) =    0.0582679412
h( 49) =    0.0594805436
h( 50) =    0.0598886000
h( 51) =    0.0594805436
h( 52) =    0.0582679412
h( 53) =    0.0562850612
h( 54) =    0.0535875964
h( 55) =    0.0502505966
h( 56) =    0.0463657021
h( 57) =    0.0420377958
h( 58) =    0.0373812192
h( 59) =    0.0325157116
h( 60) =    0.0275622448
h( 61) =    0.0226389244
h( 62) =    0.0178571240
h( 63) =    0.0133180050
h( 64) =    0.0091095544
h( 65) =    0.0053042442
h( 66) =    0.0019573891
h( 67) =   -0.0008937559
h( 68) =   -0.0032301520
h( 69) =   -0.0050504115
h( 70) =   -0.0063695716
h( 71) =   -0.0072172893
h( 72) =   -0.0076355687
h( 73) =   -0.0076761433
h( 74) =   -0.0073976494
h( 75) =   -0.0068627280
h( 76) =   -0.0061351895
h( 77) =   -0.0052773653
h( 78) =   -0.0043477549
h( 79) =   -0.0033990551
h( 80) =   -0.0024766362
h( 81) =   -0.0016175018
h( 82) =   -0.0008497443
h( 83) =   -0.0001924807
h( 84) =    0.0003437697
h( 85) =    0.0007563233
h( 86) =    0.0010492628
h( 87) =    0.0012321435
h( 88) =    0.0013185698
h( 89) =    0.0013247321
h( 90) =    0.0012679916
h( 91) =    0.0011655918
h( 92) =    0.0010335606
h( 93) =    0.0008858505
h( 94) =    0.0007337474
h( 95) =    0.0005855599
h( 96) =    0.0004465792
h( 97) =    0.0003192871
h( 98) =    0.0002037719
h( 99) =    0.0000983022
h(100) =    0.0000000000

Đáp ứng tần số H(z):
------------------------------
Tần số(Hz)  |H(z)|(dB)    Pha(độ)
--------------------------------------------------
     0.000        0.000        0.000
     0.063       -0.000      -11.250
     0.125       -0.001      -22.500
     0.188       -0.002      -33.750
     0.250       -0.004      -45.000
     0.312       -0.005      -56.250
     0.375       -0.007      -67.500
     0.438       -0.009      -78.750
     0.500       -0.010      -90.000
     0.562       -0.012     -101.250
     0.625       -0.012     -112.500
     0.688       -0.013     -123.750
     0.750       -0.012     -135.000
     0.812       -0.012     -146.250
     0.875       -0.011     -157.500
     0.938       -0.010     -168.750
     1.000       -0.010     -180.000
     1.062       -0.011     -191.250
     1.125       -0.013     -202.500
     1.188       -0.017     -213.750
     1.250       -0.023     -225.000
     1.312       -0.034     -236.250
     1.375       -0.049     -247.500
     1.438       -0.070     -258.750
     1.500       -0.097     -270.000
     1.562       -0.133     -281.250
     1.625       -0.177     -292.500
     1.688       -0.232     -303.750
     1.750       -0.299     -315.000
     1.812       -0.379     -326.250
     1.875       -0.473     -337.500
     1.938       -0.582     -348.750
     2.000       -0.709     -360.000
     2.063       -0.853     -371.250
     2.125       -1.017     -382.500
     2.188       -1.202     -393.750
     2.250       -1.408     -405.000
     2.312       -1.638     -416.250
     2.375       -1.893     -427.500
     2.438       -2.173     -438.750
     2.500       -2.480     -450.000
     2.563       -2.815     -461.250
     2.625       -3.179     -472.500
     2.688       -3.574     -483.750
     2.750       -4.002     -495.000
     2.812       -4.462     -506.250
     2.875       -4.957     -517.500
     2.937       -5.488     -528.750
     3.000       -6.056     -540.000
     3.063       -6.663     -551.250
     3.125       -7.312     -562.500
     3.188       -8.002     -573.750
     3.250       -8.737     -585.000
     3.312       -9.518     -596.250
     3.375      -10.348     -607.500
     3.438      -11.229     -618.750
     3.500      -12.164     -630.000
     3.562      -13.156     -641.250
     3.625      -14.209     -652.500
     3.688      -15.326     -663.750
     3.750      -16.513     -675.000
     3.812      -17.774     -686.250
     3.875      -19.117     -697.500
     3.938      -20.549     -708.750
     4.000      -22.080     -720.000
     4.062      -23.721     -731.250
     4.125      -25.487     -742.500
     4.188      -27.398     -753.750
     4.250      -29.480     -765.000
     4.312      -31.771     -776.250
     4.375      -34.325     -787.500
     4.438      -37.229     -798.750
     4.500      -40.634     -810.000
     4.563      -44.846     -821.250
     4.625      -50.648     -832.500
     4.688      -61.677     -843.750
     4.750      -62.994     -675.000
     4.812      -55.097     -686.250
     4.875      -52.345     -697.500
     4.938      -51.197     -708.750
     5.000      -50.890     -720.000
     5.062      -51.135     -731.250
     5.125      -51.795     -742.500
     5.187      -52.798     -753.750
     5.250      -54.107     -765.000
     5.312      -55.699     -776.250
     5.375      -57.568     -787.500
     5.438      -59.710     -798.750
     5.500      -62.120     -810.000
     5.562      -64.783     -821.250
     5.625      -67.655     -832.500
     5.688      -70.627     -843.750
     5.750      -73.487     -855.000
     5.812      -75.903     -866.250
     5.875      -77.540     -877.500
     5.937      -78.307     -888.750
     6.000      -78.467     -900.000
     6.062      -78.454     -911.250
     6.125      -78.677     -922.500
     6.188      -79.500     -933.750
     6.250      -81.419     -945.000
     6.312      -85.690     -956.250
     6.375     -103.348     -967.500
     6.438      -86.126     -798.750
     6.500      -78.824     -810.000
     6.562      -74.633     -821.250
     6.625      -71.741     -832.500
     6.688      -69.619     -843.750
     6.750      -68.039     -855.000
     6.813      -66.884     -866.250
     6.875      -66.090     -877.500
     6.938      -65.621     -888.750
     7.000      -65.465     -900.000
     7.062      -65.626     -911.250
     7.125      -66.127     -922.500
     7.187      -67.023     -933.750
     7.250      -68.413     -945.000
     7.312      -70.500     -956.250
     7.375      -73.754     -967.500
     7.438      -79.713     -978.750
     7.500     -110.073     -810.000
     7.562      -79.169     -821.250
     7.625      -73.429     -832.500
     7.688      -70.223     -843.750
     7.750      -68.143     -855.000
     7.813      -66.744     -866.250
     7.875      -65.835     -877.500
     7.938      -65.319     -888.750
     8.000      -65.152     -900.000
     8.062      -65.319     -911.250
     8.125      -65.829     -922.500
     8.188      -66.723     -933.750
     8.250      -68.086     -945.000
     8.313      -70.091     -956.250
     8.375      -73.121     -967.500
     8.438      -78.321     -978.750
     8.500      -94.650     -990.000
     8.563      -81.551     -821.250
     8.625      -74.835     -832.500
     8.688      -71.354     -843.750
     8.750      -69.160     -855.000
     8.813      -67.708     -866.250
     8.875      -66.774     -877.500
     8.938      -66.249     -888.750
     9.000      -66.080     -900.000
     9.062      -66.248     -911.250
     9.125      -66.760     -922.500
     9.188      -67.654     -933.750
     9.250      -69.011     -945.000
     9.312      -70.998     -956.250
     9.375      -73.983     -967.500
     9.438      -79.038     -978.750
     9.500      -93.651     -990.000
     9.562      -83.173     -821.250
     9.625      -76.174     -832.500
     9.688      -72.620     -843.750
     9.750      -70.397     -855.000
     9.812      -68.931     -866.250
     9.875      -67.991     -877.500
     9.938      -67.464     -888.750
    10.000      -67.294     -900.000
    10.063      -67.461     -911.250
    10.125      -67.974     -922.500
    10.188      -68.869     -933.750
    10.250      -70.226     -945.000
    10.312      -72.211     -956.250
    10.375      -75.190     -967.500
    10.437      -80.225     -978.750
    10.500      -94.624     -990.000
    10.562      -84.495     -821.250
    10.625      -77.452     -832.500
    10.688      -73.887     -843.750
    10.750      -71.659     -855.000
    10.813      -70.192     -866.250
    10.875      -69.251     -877.500
    10.937      -68.722     -888.750
    11.000      -68.553     -900.000
    11.063      -68.720     -911.250
    11.125      -69.234     -922.500
    11.188      -70.129     -933.750
    11.250      -71.488     -945.000
    11.313      -73.476     -956.250
    11.375      -76.462     -967.500
    11.438      -81.516     -978.750
    11.500      -96.113     -990.000
    11.562      -85.663     -821.250
    11.625      -78.661     -832.500
    11.687      -75.107     -843.750
    11.750      -72.883     -855.000
    11.812      -71.417     -866.250
    11.875      -70.477     -877.500
    11.938      -69.949     -888.750
    12.000      -69.779     -900.000
    12.062      -69.947     -911.250
    12.125      -70.460     -922.500
    12.188      -71.357     -933.750
    12.250      -72.718     -945.000
    12.313      -74.711     -956.250
    12.375      -77.708     -967.500
    12.438      -82.795     -978.750
    12.500      -97.746     -990.000
    12.562      -86.733     -821.250
    12.625      -79.799     -832.500
    12.688      -76.262     -843.750
    12.750      -74.045     -855.000
    12.812      -72.582     -866.250
    12.875      -71.643     -877.500
    12.937      -71.116     -888.750
    13.000      -70.946     -900.000
    13.062      -71.114     -911.250
    13.125      -71.628     -922.500
    13.188      -72.525     -933.750
    13.250      -73.889     -945.000
    13.312      -75.887     -956.250
    13.375      -78.897     -967.500
    13.438      -84.022     -978.750
    13.500      -99.396     -990.000
    13.563      -87.727     -821.250
    13.625      -80.866     -832.500
    13.688      -77.348     -843.750
    13.750      -75.139     -855.000
    13.812      -73.680     -866.250
    13.875      -72.742     -877.500
    13.938      -72.215     -888.750
    14.000      -72.046     -900.000
    14.062      -72.214     -911.250
    14.125      -72.728     -922.500
    14.188      -73.626     -933.750
    14.250      -74.993     -945.000
    14.312      -76.997     -956.250
    14.375      -80.019     -967.500
    14.438      -85.183     -978.750
    14.500     -101.011     -990.000
    14.562      -88.655     -821.250
    14.625      -81.867     -832.500
    14.688      -78.368     -843.750
    14.750      -76.166     -855.000
    14.813      -74.711     -866.250
    14.875      -73.775     -877.500
    14.938      -73.248     -888.750
    15.000      -73.078     -900.000
    15.063      -73.246     -911.250
    15.125      -73.761     -922.500
    15.188      -74.660     -933.750
    15.250      -76.029     -945.000
    15.312      -78.038     -956.250
    15.375      -81.073     -967.500
    15.438      -86.274     -978.750
    15.500     -102.572     -990.000
    15.562      -89.525     -821.250
    15.625      -82.805     -832.500
    15.688      -79.324     -843.750
    15.750      -77.129     -855.000
    15.812      -75.677     -866.250
    15.875      -74.742     -877.500
    15.938      -74.216     -888.750
    16.000      -74.047     -900.000
    16.063      -74.215     -911.250
    16.125      -74.729     -922.500
    16.188      -75.630     -933.750
    16.250      -77.001     -945.000
    16.312      -79.015     -956.250
    16.375      -82.061     -967.500
    16.438      -87.298     -978.750
    16.500     -104.071     -990.000
    16.563      -90.341     -821.250
    16.625      -83.685     -832.500
    16.688      -80.220     -843.750
    16.750      -78.032     -855.000
    16.812      -76.583     -866.250
    16.875      -75.649     -877.500
    16.938      -75.124     -888.750
    17.000      -74.954     -900.000
    17.063      -75.122     -911.250
    17.125      -75.637     -922.500
    17.188      -76.538     -933.750
    17.250      -77.911     -945.000
    17.312      -79.930     -956.250
    17.375      -82.988     -967.500
    17.438      -88.259     -978.750
    17.500     -105.508     -990.000
    17.562      -91.109     -821.250
    17.625      -84.510     -832.500
    17.688      -81.060     -843.750
    17.750      -78.879     -855.000
    17.812      -77.432     -866.250
    17.875      -76.500     -877.500
    17.938      -75.975     -888.750
    18.000      -75.805     -900.000
    18.062      -75.973     -911.250
    18.125      -76.488     -922.500
    18.188      -77.390     -933.750
    18.250      -78.765     -945.000
    18.313      -80.789     -956.250
    18.375      -83.856     -967.500
    18.438      -89.160     -978.750
    18.500     -106.885     -990.000
    18.562      -91.832     -821.250
    18.625      -85.285     -832.500
    18.688      -81.849     -843.750
    18.750      -79.673     -855.000
    18.812      -78.229     -866.250
    18.875      -77.298     -877.500
    18.938      -76.773     -888.750
    19.000      -76.604     -900.000
    19.062      -76.772     -911.250
    19.125      -77.287     -922.500
    19.188      -78.190     -933.750
    19.250      -79.567     -945.000
    19.312      -81.594     -956.250
    19.375      -84.672     -967.500
    19.438      -90.005     -978.750
    19.500     -108.205     -990.000
    19.562      -92.512     -821.250
    19.625      -86.013     -832.500
    19.688      -82.590     -843.750
    19.750      -80.419     -855.000
    19.812      -78.978     -866.250
    19.875      -78.047     -877.500
    19.938      -77.523     -888.750
    20.000      -77.354     -900.000
    20.062      -77.522     -911.250
    20.125      -78.037     -922.500
    20.188      -78.941     -933.750
    20.250      -80.319     -945.000
    20.312      -82.351     -956.250
    20.375      -85.437     -967.500
    20.438      -90.799     -978.750
    20.500     -109.473     -990.000
    20.562      -93.153     -821.250
    20.625      -86.697     -832.500
    20.688      -83.286     -843.750
    20.750      -81.120     -855.000
    20.812      -79.681     -866.250
    20.875      -78.752     -877.500
    20.938      -78.228     -888.750
    21.000      -78.058     -900.000
    21.062      -78.227     -911.250
    21.125      -78.742     -922.500
    21.188      -79.646     -933.750
    21.250      -81.027     -945.000
    21.312      -83.062     -956.250
    21.375      -86.156     -967.500
    21.438      -91.545     -978.750
    21.500     -110.693     -990.000
    21.562      -93.757     -821.250
    21.625      -87.341     -832.500
    21.688      -83.941     -843.750
    21.750      -81.779     -855.000
    21.812      -80.342     -866.250
    21.875      -79.414     -877.500
    21.938      -78.890     -888.750
    22.000      -78.721     -900.000
    22.063      -78.889     -911.250
    22.125      -79.405     -922.500
    22.188      -80.310     -933.750
    22.250      -81.691     -945.000
    22.312      -83.730     -956.250
    22.375      -86.833     -967.500
    22.438      -92.246     -978.750
    22.500     -111.868     -990.000
    22.562      -94.326     -821.250
    22.625      -87.946     -832.500
    22.688      -84.557     -843.750
    22.750      -82.399     -855.000
    22.812      -80.964     -866.250
    22.875      -80.036     -877.500
    22.938      -79.513     -888.750
    23.000      -79.344     -900.000
    23.062      -79.512     -911.250
    23.125      -80.028     -922.500
    23.188      -80.933     -933.750
    23.250      -82.317     -945.000
    23.312      -84.358     -956.250
    23.375      -87.469     -967.500
    23.438      -92.906     -978.750
    23.500     -113.004     -990.000
    23.562      -94.861     -821.250
    23.625      -88.516     -832.500
    23.688      -85.136     -843.750
    23.750      -82.983     -855.000
    23.813      -81.549     -866.250
    23.875      -80.622     -877.500
    23.938      -80.099     -888.750
    24.000      -79.930     -900.000
    24.063      -80.098     -911.250
    24.125      -80.614     -922.500
    24.188      -81.520     -933.750
    24.250      -82.905     -945.000
    24.312      -84.949     -956.250
    24.375      -88.067     -967.500
    24.438      -93.527     -978.750
    24.500     -114.103     -990.000
    24.562      -95.366     -821.250
    24.625      -89.052     -832.500
    24.688      -85.681     -843.750
    24.750      -83.531     -855.000
    24.812      -82.099     -866.250
    24.875      -81.173     -877.500
    24.938      -80.650     -888.750
    25.000      -80.481     -900.000
    25.063      -80.649     -911.250
    25.125      -81.166     -922.500
    25.188      -82.072     -933.750
    25.250      -83.458     -945.000
    25.313      -85.505     -956.250
    25.375      -88.630     -967.500
    25.438      -94.112     -978.750
    25.500     -115.170     -990.000
    25.562      -95.840     -821.250
    25.625      -89.557     -832.500
    25.688      -86.194     -843.750
    25.750      -84.047     -855.000
    25.812      -82.617     -866.250
    25.875      -81.691     -877.500
    25.938      -81.169     -888.750
    26.000      -81.000     -900.000
    26.062      -81.168     -911.250
    26.125      -81.684     -922.500
    26.187      -82.591     -933.750
    26.250      -83.978     -945.000
    26.313      -86.029     -956.250
    26.375      -89.160     -967.500
    26.438      -94.662     -978.750
    26.500     -116.207     -990.000
    26.563      -96.287     -821.250
    26.625      -90.031     -832.500
    26.688      -86.676     -843.750
    26.750      -84.532     -855.000
    26.812      -83.103     -866.250
    26.875      -82.178     -877.500
    26.938      -81.656     -888.750
    27.000      -81.487     -900.000
    27.062      -81.655     -911.250
    27.125      -82.172     -922.500
    27.188      -83.079     -933.750
    27.250      -84.468     -945.000
    27.312      -86.520     -956.250
    27.375      -89.658     -967.500
    27.438      -95.180     -978.750
    27.500     -117.220     -990.000
    27.563      -96.706     -821.250
    27.625      -90.476     -832.500
    27.688      -87.129     -843.750
    27.750      -84.988     -855.000
    27.813      -83.561     -866.250
    27.875      -82.636     -877.500
    27.938      -82.114     -888.750
    28.000      -81.945     -900.000
    28.063      -82.113     -911.250
    28.125      -82.630     -922.500
    28.188      -83.538     -933.750
    28.250      -84.928     -945.000
    28.312      -86.983     -956.250
    28.375      -90.126     -967.500
    28.437      -95.667     -978.750
    28.500     -118.211     -990.000
    28.562      -97.100     -821.250
    28.625      -90.895     -832.500
    28.687      -87.554     -843.750
    28.750      -85.417     -855.000
    28.813      -83.990     -866.250
